ARQUIVO DE MEDIDA
Usuário: 
Amostra: 
Comentário: 
Parâmetros: vmode 1 sen 27 acgain 0 tc 10 23.000000 4.000000
Magnitude (mV)	Comprimento de onda(nm)
0.000000	200.000000
0.000000	209.993518
0.000000	219.997843
0.000000	229.999691
0.000000	239.998951
0.000000	249.995510
0.000000	259.989255
0.000000	269.980075
0.000000	279.967855
0.000000	289.952485
0.000000	299.967229
0.000000	309.978574
0.100000	319.986407
0.400000	329.990614
0.400000	339.991083
0.300000	349.987699
0.200000	359.980351
0.200000	369.968923
0.300000	379.953305
0.500000	389.966640
0.800000	399.975528
1.200000	409.979855
1.700000	419.979505
2.400000	429.974365
3.100000	439.964320
4.300000	449.949258
5.700000	459.962211
7.300000	469.969883
8.700000	479.972159
9.800000	489.968924
10.800000	499.960063
11.600000	509.945462
12.400000	519.958041
13.000000	529.964611
13.600000	539.965056
14.700000	549.959260
15.100000	559.947107
15.500000	569.961414
15.900000	579.969090
16.200000	589.970019
16.600000	599.964084
16.800000	609.951169
17.000000	619.963975
17.300000	629.969520
17.800000	639.967689
18.200000	649.958362
18.400000	659.974143
18.500000	669.982145
18.300000	679.982249
18.200000	689.974337
18.300000	699.958293
18.200000	709.966584
18.000000	719.966452
17.800000	729.957777
17.400000	739.972944
17.100000	749.979275
16.400000	759.976649
15.800000	769.964947
15.300000	779.976434
15.100000	789.978547
15.200000	799.971163
15.200000	809.986456
15.100000	819.991950
14.600000	829.987524
14.100000	839.973057
13.400000	849.980590
12.100000	859.977774
9.900000	869.964487
7.000000	879.972667
5.100000	889.970064
4.300000	899.956554
3.700000	909.963971
2.800000	919.960166
1.400000	929.945014
0.400000	939.950239
0.100000	949.943797
0.100000	959.957334
0.100000	969.958880
0.200000	979.948311
0.200000	989.957154
0.200000	999.953553
0.600000	1009.951125
0.500000	1019.973245
0.400000	1029.992398
0.400000	1040.008556
0.300000	1050.021689
0.300000	1060.031768
0.300000	1070.038764
0.300000	1080.042648
0.400000	1090.043390
0.600000	1100.040962
0.800000	1110.035334
1.200000	1120.026478
1.600000	1130.014365
2.100000	1139.998964
2.900000	1149.980248
3.700000	1159.958187
4.800000	1169.932753
5.400000	1179.903916
6.500000	1189.871646
7.900000	1199.901459
9.200000	1209.927737
10.600000	1219.950448
11.800000	1229.969564
13.100000	1239.985056
14.200000	1249.996894
14.900000	1260.005048
15.800000	1270.009489
16.300000	1280.010187
16.900000	1290.007114
17.600000	1300.000238
