ARQUIVO DE MEDIDA
Usuário: 
Amostra: thales_silicio_141119
Comentário: 
Parâmetros: vmode 1 sen 27 acgain 0 tc 10 23.000000 4.000000
Magnitude (mV)	Comprimento de onda(nm)
0.600000	200.000000
0.300000	209.993518
0.300000	219.997843
0.300000	229.999691
0.300000	239.998951
0.300000	249.995510
0.300000	259.989255
0.300000	269.980075
0.300000	279.967855
0.300000	289.952485
0.300000	299.967229
0.300000	309.978574
0.500000	319.986407
2.000000	329.990614
2.000000	339.991083
1.300000	349.987699
0.800000	359.980351
0.500000	369.968923
0.500000	379.953305
0.900000	389.966640
1.400000	399.975528
2.000000	409.979855
2.800000	419.979505
3.700000	429.974365
4.200000	439.964320
5.200000	449.949258
6.300000	459.962211
7.400000	469.969883
8.200000	479.972159
8.900000	489.968924
9.500000	499.960063
10.100000	509.945462
10.600000	519.958041
11.100000	529.964611
11.600000	539.965056
11.900000	549.959260
12.000000	559.947107
12.400000	569.961414
12.800000	579.969090
13.500000	589.970019
13.900000	599.964084
14.100000	609.951169
14.300000	619.963975
14.600000	629.969520
15.000000	639.967689
15.100000	649.958362
15.300000	659.974143
15.400000	669.982145
15.300000	679.982249
15.500000	689.974337
15.600000	699.958293
15.500000	709.966584
15.500000	719.966452
15.400000	729.957777
15.400000	739.972944
15.100000	749.979275
14.900000	759.976649
14.600000	769.964947
14.300000	779.976434
14.200000	789.978547
14.200000	799.971163
14.500000	809.986456
14.600000	819.991950
14.500000	829.987524
14.400000	839.973057
14.400000	849.980590
14.300000	859.977774
14.600000	869.964487
14.900000	879.972667
15.100000	889.970064
15.400000	899.956554
15.400000	909.963971
15.200000	919.960166
14.700000	929.945014
14.400000	939.950239
14.400000	949.943797
14.300000	959.957334
13.900000	969.958880
13.000000	979.948311
12.300000	989.957154
11.800000	999.953553
14.200000	1009.951125
13.400000	1019.973245
12.700000	1029.992398
11.800000	1040.008556
10.900000	1050.021689
10.000000	1060.031768
9.300000	1070.038764
8.500000	1080.042648
7.900000	1090.043390
7.400000	1100.040962
7.100000	1110.035334
6.800000	1120.026478
6.700000	1130.014365
6.700000	1139.998964
6.900000	1149.980248
7.300000	1159.958187
8.000000	1169.932753
9.000000	1179.903916
9.900000	1189.871646
10.800000	1199.901459
11.600000	1209.927737
12.400000	1219.950448
13.100000	1229.969564
13.500000	1239.985056
13.800000	1249.996894
14.200000	1260.005048
14.400000	1270.009489
14.700000	1280.010187
15.200000	1290.007114
15.400000	1300.000238
